     2.20           OBSERVATION DATA    SBAS                RINEX VERSION / TYPE
edited                                  20191216 135342 UTC PGM / RUN BY / DATE 
MANUALLY EDITED RINEX FILE ONLY FOR TEST PURPOSES           COMMENT             
XYZ9                                                        MARKER NAME         
9999                                                        MARKER NUMBER       
SPACEBORNE                                                  MARKER TYPE         
NOBODY              OREKIT                                  OBSERVER / AGENCY   
9876543             MY_TYPE             0.0.1               REC # / TYPE / VERS 
17                  MY_ANTENNA      ABC                     ANT # / TYPE        
        0.0083        0.0000        0.0000                  ANTENNA: DELTA H/E/N
        1.1111        2.2222        3.3333                  ANTENNA: DELTA X/Y/Z
        9.9999        8.8888        7.7777                  ANTENNA: B.SIGHT XYZ
        0.1455       -0.3421        0.0024                  CENTER OF MASS: XYZ 
     1     1     0                                          WAVELENGTH FACT L1/2
     9    L1    L2    P1    P2    C1    LA    S1    S2    SA# / TYPES OF OBSERV
    10.000                                                  INTERVAL
     9                                                      # OF SATELLITES     
  2007     9    29     0     0    0.0000000                 TIME OF FIRST OBS
  2007     9    29     0     0    0.0000000                 TIME OF LAST OBS 
                                                            END OF HEADER
 07  9 29  0  0  0.0000000  0  7  1  5  9 12 14 22 30                           
    467614.70106    364374.76806  24554538.88000  24554544.98800  24554539.18900
    467614.71300        30.00000        40.00000       142.00000
  -9534398.75908  -7429403.18808  20429237.66700  20429243.48400  20429238.30300
  -9534398.75900       359.00000       353.00000       659.00000
   8159697.08906   6358202.92807  23305299.04600  23305303.73300  23305298.21400
   8159697.08800        46.00000        63.00000       203.00000
  11013515.41508   8581958.92308  22201472.20200  22201476.86900  22201472.33900
  11013515.41500       171.00000       205.00000       443.00000
 -14800471.86108 -11532836.37808  21466044.52200  21466049.85800  21466044.96800
 -14800471.86100       183.00000       197.00000       446.00000
  -7326510.50108  -5823497.87408  21168675.13800  21168678.78200  21168675.41500
  -7326510.50100       231.00000       336.00000       561.00000
   1370942.80909   1068266.89609  19786351.71000  19786356.76200  19786351.44800
   1370942.80900       631.00000       630.00000       918.00000
